T(K)     P(bar)   d(mol/L)   x(1)
 CRI
 304.2100   73.8300    8.7568  0.000000 0.10000E+01
 304.2056   73.8318    8.7570  0.000050 0.99995E+00   3   1
 304.2011   73.8340    8.7572  0.000117 0.99988E+00   2   1
 304.1920   73.8384    8.7577  0.000250 0.99975E+00   2   1
 304.1740   73.8472    8.7586  0.000517 0.99948E+00   2   1
 304.1379   73.8649    8.7604  0.001050 0.99895E+00   2   1
 304.0657   73.9002    8.7640  0.002117 0.99788E+00   2   1
 303.9211   73.9706    8.7711  0.004250 0.99575E+00   2   1
 303.6309   74.1111    8.7855  0.008517 0.99148E+00   2   1
 303.2894   74.2750    8.8023  0.013517 0.98648E+00   2   1
 302.9461   74.4381    8.8192  0.018517 0.98148E+00   2   1
 302.6013   74.6004    8.8362  0.023517 0.97648E+00   2   1
 302.2547   74.7618    8.8532  0.028517 0.97148E+00   2   1
 301.9064   74.9225    8.8702  0.033517 0.96648E+00   2   1
 301.5565   75.0822    8.8873  0.038517 0.96148E+00   2   1
 301.2048   75.2411    8.9044  0.043517 0.95648E+00   2   1
 300.8514   75.3990    8.9216  0.048517 0.95148E+00   2   1
 300.4962   75.5560    8.9389  0.053517 0.94648E+00   2   1
 300.1394   75.7121    8.9562  0.058517 0.94148E+00   2   1
 299.7807   75.8671    8.9735  0.063517 0.93648E+00   2   1
 299.4203   76.0212    8.9909  0.068517 0.93148E+00   2   1
 299.0581   76.1743    9.0083  0.073517 0.92648E+00   2   1
 298.6941   76.3262    9.0258  0.078517 0.92148E+00   2   1
 298.3283   76.4772    9.0433  0.083517 0.91648E+00   2   1
 297.9606   76.6270    9.0608  0.088517 0.91148E+00   2   1
 297.5911   76.7756    9.0784  0.093517 0.90648E+00   2   1
 297.2198   76.9232    9.0961  0.098517 0.90148E+00   2   1
 296.8466   77.0695    9.1138  0.103517 0.89648E+00   2   1
 296.4716   77.2147    9.1315  0.108517 0.89148E+00   2   1
 296.0946   77.3586    9.1493  0.113517 0.88648E+00   2   1
 295.7158   77.5012    9.1671  0.118517 0.88148E+00   2   1
 295.3350   77.6426    9.1850  0.123517 0.87648E+00   2   1
 294.9524   77.7826    9.2029  0.128517 0.87148E+00   2   1
 294.5677   77.9213    9.2208  0.133517 0.86648E+00   2   1
 294.1812   78.0586    9.2388  0.138517 0.86148E+00   2   1
 293.7927   78.1946    9.2568  0.143517 0.85648E+00   2   1
 293.4022   78.3290    9.2749  0.148517 0.85148E+00   2   1
 293.0097   78.4621    9.2930  0.153517 0.84648E+00   2   1
 292.6152   78.5936    9.3111  0.158517 0.84148E+00   2   1
 292.2187   78.7235    9.3293  0.163517 0.83648E+00   2   1
 291.8201   78.8520    9.3475  0.168517 0.83148E+00   2   1
 291.4195   78.9788    9.3657  0.173517 0.82648E+00   2   1
 291.0169   79.1040    9.3840  0.178517 0.82148E+00   2   1
 290.6122   79.2275    9.4023  0.183517 0.81648E+00   2   1
 290.2054   79.3493    9.4207  0.188517 0.81148E+00   2   1
 289.7965   79.4694    9.4390  0.193517 0.80648E+00   2   1
 289.3855   79.5877    9.4574  0.198517 0.80148E+00   2   1
 288.9724   79.7042    9.4759  0.203517 0.79648E+00   2   1
 288.5572   79.8188    9.4943  0.208517 0.79148E+00   2   1
 288.1398   79.9316    9.5128  0.213517 0.78648E+00   2   1
 287.7202   80.0425    9.5313  0.218517 0.78148E+00   2   1
 287.2984   80.1514    9.5499  0.223517 0.77648E+00   2   1
 286.8745   80.2582    9.5684  0.228517 0.77148E+00   2   1
 286.4484   80.3631    9.5870  0.233517 0.76648E+00   2   1
 286.0200   80.4659    9.6056  0.238517 0.76148E+00   2   1
 285.5894   80.5665    9.6242  0.243517 0.75648E+00   2   1
 285.1566   80.6650    9.6429  0.248517 0.75148E+00   2   1
 284.7215   80.7613    9.6615  0.253517 0.74648E+00   2   1
 284.2841   80.8553    9.6802  0.258517 0.74148E+00   2   1
 283.8444   80.9470    9.6989  0.263517 0.73648E+00   2   1
 283.4025   81.0364    9.7176  0.268517 0.73148E+00   2   1
 282.9582   81.1234    9.7363  0.273517 0.72648E+00   2   1
 282.5116   81.2080    9.7550  0.278517 0.72148E+00   2   1
 282.0627   81.2901    9.7737  0.283517 0.71648E+00   2   1
 281.6114   81.3697    9.7924  0.288517 0.71148E+00   2   1
 281.1577   81.4467    9.8111  0.293517 0.70648E+00   2   1
 280.7017   81.5211    9.8298  0.298517 0.70148E+00   2   1
 280.2432   81.5929    9.8485  0.303517 0.69648E+00   2   1
 279.7824   81.6619    9.8672  0.308517 0.69148E+00   2   1
 279.3192   81.7281    9.8859  0.313517 0.68648E+00   2   1
 278.8535   81.7915    9.9046  0.318517 0.68148E+00   2   1
 278.3854   81.8521    9.9233  0.323517 0.67648E+00   2   1
 277.9148   81.9097    9.9419  0.328517 0.67148E+00   2   1
 277.4417   81.9644    9.9606  0.333517 0.66648E+00   2   1
 276.9662   82.0160    9.9792  0.338517 0.66148E+00   2   1
 276.4882   82.0645    9.9978  0.343517 0.65648E+00   2   1
 276.0077   82.1099   10.0163  0.348517 0.65148E+00   2   1
 275.5246   82.1521   10.0349  0.353517 0.64648E+00   2   1
 275.0391   82.1911   10.0533  0.358517 0.64148E+00   2   1
 274.5510   82.2268   10.0718  0.363517 0.63648E+00   2   1
 274.0603   82.2591   10.0902  0.368517 0.63148E+00   2   1
 273.5671   82.2879   10.1086  0.373517 0.62648E+00   2   1
 273.0714   82.3133   10.1269  0.378517 0.62148E+00   2   1
 272.5730   82.3352   10.1451  0.383517 0.61648E+00   2   1
 272.0721   82.3534   10.1633  0.388517 0.61148E+00   2   1
 271.5686   82.3680   10.1815  0.393517 0.60648E+00   2   1
 271.0625   82.3789   10.1996  0.398517 0.60148E+00   2   1
 270.5537   82.3860   10.2176  0.403517 0.59648E+00   2   1
 270.0424   82.3893   10.2355  0.408517 0.59148E+00   2   1
 269.5284   82.3887   10.2533  0.413517 0.58648E+00   2   1
 269.0117   82.3841   10.2711  0.418517 0.58148E+00   2   1
 268.4925   82.3755   10.2887  0.423517 0.57648E+00   2   1
 267.9705   82.3628   10.3063  0.428517 0.57148E+00   2   1
 267.4460   82.3460   10.3238  0.433517 0.56648E+00   2   1
 266.9187   82.3249   10.3411  0.438517 0.56148E+00   2   1
 266.3888   82.2996   10.3584  0.443517 0.55648E+00   2   1
 265.8562   82.2699   10.3755  0.448517 0.55148E+00   2   1
 265.3210   82.2358   10.3925  0.453517 0.54648E+00   2   1
 264.7831   82.1973   10.4093  0.458517 0.54148E+00   2   1
 264.2425   82.1542   10.4260  0.463517 0.53648E+00   2   1
 263.6992   82.1066   10.4426  0.468517 0.53148E+00   2   1
 263.1532   82.0543   10.4590  0.473517 0.52648E+00   2   1
 262.6045   81.9973   10.4753  0.478517 0.52148E+00   2   1
 262.0532   81.9354   10.4913  0.483517 0.51648E+00   2   1
 261.4991   81.8688   10.5072  0.488517 0.51148E+00   2   1
 260.9424   81.7972   10.5229  0.493517 0.50648E+00   2   1
 260.3830   81.7207   10.5385  0.498517 0.50148E+00   2   1
 259.8210   81.6392   10.5538  0.503517 0.49648E+00   2   1
 259.2562   81.5525   10.5689  0.508517 0.49148E+00   2   1
 258.6888   81.4607   10.5837  0.513517 0.48648E+00   2   1
 258.1187   81.3637   10.5984  0.518517 0.48148E+00   2   1
 257.5460   81.2614   10.6127  0.523517 0.47648E+00   2   1
 256.9706   81.1538   10.6269  0.528517 0.47148E+00   2   1
 256.3925   81.0409   10.6407  0.533517 0.46648E+00   3   1
 255.8118   80.9224   10.6543  0.538517 0.46148E+00   3   1
 255.2285   80.7985   10.6677  0.543517 0.45648E+00   3   1
 254.6426   80.6690   10.6807  0.548517 0.45148E+00   3   1
 254.0541   80.5340   10.6934  0.553517 0.44648E+00   3   1
 253.4629   80.3933   10.7057  0.558517 0.44148E+00   3   1
 252.8692   80.2469   10.7178  0.563517 0.43648E+00   3   1
 252.2729   80.0947   10.7295  0.568517 0.43148E+00   3   1
 251.6741   79.9368   10.7408  0.573517 0.42648E+00   3   1
 251.0727   79.7730   10.7518  0.578517 0.42148E+00   3   1
 250.4688   79.6033   10.7623  0.583517 0.41648E+00   3   1
 249.8625   79.4278   10.7725  0.588517 0.41148E+00   3   1
 249.2536   79.2462   10.7823  0.593517 0.40648E+00   3   1
 248.6422   79.0587   10.7916  0.598517 0.40148E+00   3   1
 248.0284   78.8652   10.8005  0.603517 0.39648E+00   3   1
 247.4122   78.6656   10.8089  0.608517 0.39148E+00   3   1
 246.7935   78.4600   10.8168  0.613517 0.38648E+00   3   1
 246.1725   78.2482   10.8242  0.618517 0.38148E+00   3   1
 245.5491   78.0303   10.8312  0.623517 0.37648E+00   3   1
 244.9234   77.8063   10.8376  0.628517 0.37148E+00   3   1
 244.2953   77.5762   10.8434  0.633517 0.36648E+00   3   1
 243.6650   77.3398   10.8487  0.638517 0.36148E+00   3   1
 243.0323   77.0973   10.8534  0.643517 0.35648E+00   3   1
 242.3974   76.8486   10.8576  0.648517 0.35148E+00   3   1
 241.7603   76.5937   10.8611  0.653517 0.34648E+00   3   1
 241.1210   76.3327   10.8639  0.658517 0.34148E+00   3   1
 240.4795   76.0654   10.8662  0.663517 0.33648E+00   3   1
 239.8358   75.7920   10.8677  0.668517 0.33148E+00   3   1
 239.1900   75.5124   10.8686  0.673517 0.32648E+00   3   1
 238.5420   75.2266   10.8687  0.678517 0.32148E+00   3   1
 237.8920   74.9348   10.8681  0.683517 0.31648E+00   3   1
 237.2398   74.6368   10.8668  0.688517 0.31148E+00   3   1
 236.5856   74.3327   10.8647  0.693517 0.30648E+00   3   1
 235.9294   74.0226   10.8619  0.698517 0.30148E+00   3   1
 235.2711   73.7064   10.8582  0.703517 0.29648E+00   3   1
 234.6108   73.3843   10.8537  0.708517 0.29148E+00   3   1
 233.9484   73.0562   10.8483  0.713517 0.28648E+00   3   1
 233.2841   72.7222   10.8421  0.718517 0.28148E+00   3   1
 232.6178   72.3823   10.8350  0.723517 0.27648E+00   3   1
 231.9494   72.0366   10.8270  0.728517 0.27148E+00   3   1
 231.2791   71.6851   10.8181  0.733517 0.26648E+00   3   1
 230.6067   71.3278   10.8082  0.738517 0.26148E+00   3   1
 229.9324   70.9649   10.7974  0.743517 0.25648E+00   3   1
 229.2560   70.5964   10.7856  0.748517 0.25148E+00   3   1
 228.5776   70.2223   10.7729  0.753517 0.24648E+00   3   1
 227.8971   69.8427   10.7591  0.758517 0.24148E+00   3   1
 227.2145   69.4577   10.7443  0.763517 0.23648E+00   3   1
 226.5299   69.0672   10.7284  0.768517 0.23148E+00   3   1
 225.8430   68.6715   10.7115  0.773517 0.22648E+00   3   1
 225.1540   68.2705   10.6935  0.778517 0.22148E+00   3   1
 224.4628   67.8643   10.6744  0.783517 0.21648E+00   3   1
 223.7692   67.4529   10.6542  0.788517 0.21148E+00   3   1
 223.0734   67.0365   10.6329  0.793517 0.20648E+00   3   1
 222.3751   66.6151   10.6104  0.798517 0.20148E+00   3   1
 221.6743   66.1887   10.5868  0.803517 0.19648E+00   3   1
 220.9710   65.7574   10.5621  0.808517 0.19148E+00   3   1
 220.2650   65.3213   10.5362  0.813517 0.18648E+00   3   1
 219.5564   64.8804   10.5091  0.818517 0.18148E+00   3   1
 218.8448   64.4348   10.4808  0.823517 0.17648E+00   3   1
 218.1304   63.9846   10.4513  0.828517 0.17148E+00   3   1
 217.4129   63.5297   10.4207  0.833517 0.16648E+00   3   1
 216.6923   63.0703   10.3888  0.838517 0.16148E+00   3   1
 215.9683   62.6064   10.3557  0.843517 0.15648E+00   3   1
 215.2409   62.1381   10.3214  0.848517 0.15148E+00   3   1
 214.5100   61.6653   10.2858  0.853517 0.14648E+00   3   1
 213.7753   61.1881   10.2490  0.858517 0.14148E+00   3   1
 213.0367   60.7067   10.2110  0.863517 0.13648E+00   3   1
 212.2941   60.2209   10.1718  0.868517 0.13148E+00   3   1
 211.5473   59.7309   10.1313  0.873517 0.12648E+00   3   1
 210.7961   59.2367   10.0896  0.878517 0.12148E+00   3   1
 210.0403   58.7382   10.0467  0.883517 0.11648E+00   3   1
 209.2797   58.2356   10.0025  0.888517 0.11148E+00   3   1
 208.5141   57.7289    9.9571  0.893517 0.10648E+00   3   1
 207.7433   57.2181    9.9104  0.898517 0.10148E+00   3   1
 206.9670   56.7032    9.8626  0.903517 0.96483E-01   3   1
 206.1851   56.1842    9.8135  0.908517 0.91483E-01   3   1
 205.3974   55.6612    9.7632  0.913517 0.86483E-01   3   1
 204.6034   55.1341    9.7117  0.918517 0.81483E-01   3   1
 203.8032   54.6031    9.6589  0.923517 0.76483E-01   3   1
 202.9963   54.0680    9.6050  0.928517 0.71483E-01   3   1
 202.1825   53.5290    9.5499  0.933517 0.66483E-01   3   1
 201.3615   52.9860    9.4936  0.938517 0.61483E-01   3   1
 200.5331   52.4390    9.4361  0.943517 0.56483E-01   3   1
 199.6970   51.8881    9.3775  0.948517 0.51483E-01   3   1
 198.8528   51.3333    9.3177  0.953517 0.46483E-01   3   1
 198.0004   50.7746    9.2567  0.958517 0.41483E-01   3   1
 197.1393   50.2120    9.1946  0.963517 0.36483E-01   3   1
 196.2693   49.6455    9.1314  0.968517 0.31483E-01   3   1
 195.3901   49.0752    9.0670  0.973517 0.26483E-01   3   1
 194.5014   48.5010    9.0016  0.978517 0.21483E-01   3   1
 193.6027   47.9230    8.9350  0.983517 0.16483E-01   3   1
 192.6939   47.3412    8.8673  0.988517 0.11483E-01   3   1
 191.7744   46.7556    8.7986  0.993517 0.64833E-02   3   1
 190.8441   46.1663    8.7288  0.998517 0.14833E-02   3   1
 190.7051   46.0786    8.7183  0.999258 0.74167E-03   2   1
 190.6356   46.0347    8.7131  0.999629 0.37083E-03   2   1
 190.6008   46.0127    8.7105  0.999815 0.18542E-03   2   1
 190.5640   45.9900    8.7078  1.000000 0.00000E+00